|wavelength|      flux|     sigma|
|    double|    double|    double|
|    micron|        Jy|        Jy|
|      null|      null|      null|
   5.257159   6.736158  0.8279804 
   5.292428  5.3489227  0.6298956 
  5.3279333  7.2863374   0.635282 
   5.363677  6.5569367  0.7353551 
    5.39966   7.713175  1.3283474 
  5.4358845  3.1367798  1.2677133 
   5.472353   4.345074  0.6315168 
  5.5090656  5.6023674  1.0027194 
  5.5460243   5.893319   1.225745 
   5.583231   6.545018  1.4116764 
   5.620687   5.490168  1.4728061 
   5.658395   7.107505  2.1581967 
   5.696355  6.6451826  2.7842624 
    5.73457   7.162935 0.59973603 
  5.7730417   9.223744  0.7506579 
   5.811772   8.405643 0.34507263 
  5.8507614   8.701139 0.48679832 
  5.8900123   7.907875   0.716403 
  5.9295263   9.274027  0.3516245 
   5.969306  8.7018585  0.5000543 
   6.009352  12.009158   0.680981 
  6.0496674   13.77822 0.49840546 
  6.0902524  14.880306  0.4587291 
    6.13111  20.952555  0.7440749 
  6.1722426  30.871374 0.82076323 
    6.21365  40.470276   1.226015 
   6.255336  37.119446  0.7696499 
   6.297301  29.957663 0.84188336 
  6.3395476  24.299103  0.6883626 
  6.3820777  18.389292  0.5594185 
  6.4248934  17.727633  0.5683982 
  6.4679966   14.94066  0.8371753 
  6.5113883  12.611982 0.52174866 
  6.5550714  12.948048  0.5213925 
   6.599047  14.153617 0.42862624 
   6.643318  14.873871 0.53997564 
   6.687886  16.062412  0.6465322 
  6.7327533  15.459188 0.38540214 
   6.777921  16.915167 0.54852295 
   6.823392 15.7855015  0.5650007 
  6.8691683  16.022602 0.62158287 
  6.9152517    18.2733 0.64267236 
   6.961644  21.034533  0.7421747 
   7.008348  23.899364   0.706935 
  7.0553646  17.895666 0.71539354 
  7.1026974  20.342855 0.69192636 
  7.1503468   22.29298  0.7527513 
   7.198317  21.397978  0.9120862 
  7.2466087   24.34159 0.96533346 
   7.295224  26.193031 0.86525136 
   7.344166  33.120293   1.182597 
  7.3934355  34.108963  1.2679181 
   7.443036  41.516743  1.1921372 
  7.4929686   46.59787   1.539264 
  7.5432367   54.21692  1.7366213 
   7.593842  62.363636  1.6410551 
   7.644787   62.78936  1.7566655 
  7.6960735    62.0494  1.6183147 
  7.7477045  61.178074  1.5283986 
   7.799682   58.52356  1.5575731 
   7.852008    56.9227  1.4604073 
   7.904684  51.177643   1.367191 
  7.9577146   45.81087  1.3001844 
   8.011101   41.80401  1.2429254 
   8.064845  38.696495  0.9666084 
    8.11895  34.366844  1.0164863 
   8.173418  32.346092 0.94228524 
  8.2282505  31.036201  1.0251333 
   8.283451  31.636108  1.0102274 
   8.339022  31.402859  0.9502697 
   8.394966  32.356995 0.92507935 
   8.451286   33.65692  1.0360583 
   8.507982   34.70982  0.9450131 
    8.56506  36.450115  1.2078395 
  8.6803665  37.167465  1.0458263 
   8.738602   31.38535  1.0143558 
   8.797226  24.993212  0.7642198 
   8.856244   21.51489 0.70187324 
   8.915658  18.166933  0.6013708 
  8.9754715  15.525217  0.5788608 
   9.035685  14.444097  0.5422542 
   9.096302  12.381993 0.46295995 
   9.157328  11.351944  0.4168594 
   9.218761  11.928826 0.39894208 
   9.280607  11.643617 0.40728807 
   9.342867  12.123002  0.5368741 
   9.405546  11.976983 0.45752886 
   9.468645  11.104786  0.5082949 
   9.532167  11.976346 0.46228355 
   9.596115  11.458271 0.42843983 
   9.660493   12.49433  0.4652713 
   9.725302  13.361428 0.41817212 
   9.790546  11.916627 0.45078686 
    9.85623  10.396359 0.35384566 
   9.922352   10.23432 0.30578277 
   9.988918   9.607914 0.47361276 
  10.055931   9.564945 0.50572044 
  10.123394    9.63923  0.3591056 
  10.191309  10.424307   0.335109 
   10.25968  10.105961 0.34639266 
  10.328508  11.066734 0.39806178 
  10.397799  10.836054 0.43948135 
  10.467554  10.649525  0.4591183 
  10.537779  12.280127 0.37604702 
  10.608473  14.230257   0.509936 
  10.679642   13.54022   0.664736 
  10.751288 15.0491085  0.6243332 
  10.823416  14.237813  0.5387075 
  10.896027  14.949972  0.5504591 
  10.969124   18.14026  0.6216914 
  11.042715  22.886002  0.8316215 
 11.1167965  33.172344  0.9557572 
  11.191376  50.699493  1.5518663 
  11.266457    60.7562  1.9991983 
   11.34204  54.810043   1.885069 
  11.418131  39.248184  1.3915234 
  11.494731   30.79845   1.116678 
  11.571846  28.729248   1.032599 
  11.649477  25.536776  0.8177487 
  11.727631  23.663704  0.8073211 
  11.806307    22.6144  0.7740997 
  11.885512  24.409502 0.83063275 
  11.965248  25.560581 0.97514933 
   12.04552  24.768175 0.97551155 
  12.126329  23.721102  0.7925186 
  12.207682  23.709995  0.9358663 
  12.289579   25.76263  0.9665067 
  12.372028   28.29538  1.0554395 
  12.455029  29.688747  1.0468185 
  12.538585   32.73661  1.1740512 
  12.622704   38.92679  1.3090785 
  12.707386  43.265926  1.4940172 
  12.792636  56.739143  2.1424222 
  12.878458   48.30639  1.9092476 
  12.964855   26.40342   0.989661 
  13.051832  22.881495  0.8523889 
  13.139393  21.446253 0.87286794 
  13.227541  22.948267  0.9615802 
   13.31628   21.23041 0.94906616 
  13.405616  23.035797   0.889439 
   13.49555  23.907356  0.7322022 
  13.586088  22.763924     0.8961 
  13.677233  20.617844  0.8556143 
   13.76899  19.938183 0.73049504 
  13.861362  19.973322  0.8631892 
  13.954355  20.314972  0.8173779 
   14.04797  23.671215  0.9025305 
  14.142216   23.23457 0.94245315 
  14.237091  23.585272  0.9384725 
  14.332603  22.011438  1.0205117 
  14.428757  21.143578  1.0165542 
  14.525555  18.726805  0.8228606 
  14.623002  20.172066  1.0492144 
  14.721104  18.575712 0.99394417 
  14.819862  19.177635  1.0748234 
  14.919285  18.736725  1.0160306 
  15.019373  17.968014  1.1093779 
  15.120134  18.348633  1.0057108 
  15.221571  18.486544  1.0702138 
  15.323687  20.153128  1.1799603 
  15.426489   22.44643  1.1140044 
  15.529983  27.371704  1.2039667 
  15.634169  23.687813  1.2569951 
  15.739054  22.499592  1.2170157 
  15.844643   23.98351  1.0755452 
  15.950939  24.773958  1.2553798 
  16.057951  27.269203  1.1529757 
   16.16568  30.236444  1.3064669 
   16.27413   35.66921  1.2436998 
  16.383308   42.80736  1.6709462 
  16.493217    45.6755  1.4530463 
  16.603867  43.323685  1.5682769 
  16.715256  43.720947   1.704407 
  16.827393  43.885864  1.6769927 
  16.940285  52.541397  1.8996074 
  17.053932   56.15947  2.1232808 
  17.168343  46.952885  1.8071958 
   17.28352  51.726322  1.8915739 
  17.399471  51.038116  2.0214527 
  17.516197  44.970306  1.7090771 
  17.633709   37.61832  1.4422342 
  17.752007  40.034676  1.6324786 
  17.871101  40.942486  1.6260737 
  17.990993  38.100594  1.6042241 
  18.111689  38.378033  1.6740357 
  18.233196  36.741425  1.3920065 
  18.355518   40.66819  1.9355634 
  18.478659  43.712967  1.7944406 
  18.602627  42.902813   2.078503 
  18.727425   69.30234   3.146498 
  18.853062  48.621933  2.2541375 
  18.979542  44.160583   1.763284 
  19.106869  39.259853  1.6857446 
  19.235054   42.50521   2.042836 
  19.364098  47.300556   2.095191 
  19.494003   46.48216  2.1044807 
  19.624783  48.017227  2.3008552 
   19.75644  54.942295  2.9009838 
   19.88898  52.765186  2.4247148 
   20.02241   50.92418  2.5330355 
  20.156734   51.86464   2.306968 
  20.291958   52.22379  2.3299842 
  20.428093    47.4398  1.8005872 
   20.56514  50.651695  2.0438583 
  20.703106  52.743343  1.9080961 
  20.841995   51.59604   1.886438 
   20.98182  53.641235  1.7085737 
   21.12258  58.627064  1.7828827 
  21.264284  60.663254  1.7952602 
   21.40694  64.511185  2.3512273 
  21.550556  57.837914  2.2098272 
  21.695131   64.28248  2.1502683 
    21.9872   64.24353  1.6932489 
  22.134705  80.645836  1.7828494 
    22.2832   79.11549  2.1509817 
  22.432692   77.94398   2.158458 
  22.583185    82.0733  1.9883026 
  22.887213  85.316185   2.034487 
  23.040756  83.760445   1.777442 
   23.19533   85.09575  1.7986008 
   23.35094   90.46779  1.9614367 
  23.507595   97.69803  2.1885767 
  23.665298   97.02217  2.1025288 
  23.824062  85.463425  2.1143568 
  24.144794  99.646416   2.044203 
  24.306774   97.27799  2.6053474 
  24.469841  101.41231   2.312291 
  24.634003  103.13598  2.5579932 
  24.799263  105.76306  2.5146341 
  24.965633  107.65666  2.4329948 
  25.133121  117.51656  2.7277203 
  25.301731 116.557076   2.867329 
  25.471474 119.197426  2.6638873 
  25.642357  123.18308   2.760807 
  25.814384   135.4338  3.0573015 
  25.987564  142.52365   2.790341 
  26.161907  136.24364  2.8776157 
   26.33742  135.68007   2.726522 
  26.514109  139.52432   2.299222 
  26.691984  138.76529  2.6813936 
  26.871052  140.21759  2.5632436 
  27.051327  148.39435  2.6142788 
  27.232803  150.40465  2.8244975 
    27.4155  159.80556  2.5821483 
  27.599422  159.37753  2.7915108 
   27.78458  160.42905  2.7281199 
  27.970978  172.58932  2.9732084 
  28.158627  172.78477   2.969599 
  28.347534  173.47676  3.0151982 
  28.537708  168.84122  2.8990884 
  28.729164  171.10834  2.9495673 
  28.921898  173.58948   3.002172 
  29.115929  179.27083   2.972809 
  29.311256  179.91287   3.233649 
  29.507896  186.33757  3.2041295 
  29.705856  183.27573   2.788001 
  29.905144  188.69456  2.6875143 
   30.10577  191.98396  2.9788523 
  30.307743  199.72913  3.3428106 
   30.51107  210.77509  3.3825886 
   30.71576   213.7085  3.1793466 
  30.921822  222.78412  2.8140109 
  31.129265  223.31061  3.5447114 
  31.338102  227.88478   3.129995 
   31.54834  225.78459  3.3110793 
  31.759987  247.28514  3.3427093 
  31.973057  241.43185  3.7758603 
   32.18756  256.07184  3.8947234 
  32.403496   273.7137   4.120451 
   32.62088  260.00113  3.9452736 
   32.83972  287.00897   3.939771 
  33.060036   301.1845  4.1646237 
  33.281822  338.01202   5.389011 
  33.505104  460.31235   9.090223 
  33.729877   408.8606    8.93592 
  33.956165  316.60278   4.968375 
  34.183968  325.71906   4.513409 
    34.4133   313.4161   4.728878 
  34.644165  369.74173  4.0131445 
   34.87658   617.0454   12.16938 
  35.110558   333.7917  4.5008254 
  35.346104  350.99838  5.2549243 
   35.58323  346.25583  5.2454076 
   35.82195   331.1807   6.416579 
   36.06227  352.90454  5.1257315 
    36.3042  358.48315  6.1369896 
  36.547756  365.40723   5.934681 
  36.792946   339.4302  6.6149254 
  37.039776  328.51694  6.0530386 
  37.288265   392.4193   8.435088 
   37.53842  370.40085  3.5733747 
  37.790253  472.85645  6.9656796 
   38.04378   607.1886 10.5622835 
  38.299004  361.87027  13.906134 
